spectrum6 (0.67)
0.0 0.01 0.02 0.03 0.04 0.05 0.06 0.07 0.08 0.09 0.1 0.11 0.12 0.13 0.14 0.15 0.16 0.17 0.18 0.19 0.2 0.21 0.22 0.23 0.24 0.25 0.26 0.27 0.28 0.29 0.3 0.31 0.32 0.33 0.34 0.35 0.36 0.37 0.38 0.39 0.4 0.41 0.42 0.43 0.44 0.45 0.46 0.47 0.48 0.49 0.5 0.51 0.52 0.53 0.54 0.55 0.56 0.57 0.58 0.59 0.6 0.61 0.62 0.63 0.64 0.65 0.66 0.67 0.68 0.69 0.7 0.71 0.72 0.73 0.74 0.75 0.76 0.77 0.78 0.79 0.8 0.81 0.82 0.83 0.84 0.85 0.86 0.87 0.88 0.89 0.9 0.91 0.92 0.93 0.94 0.95 0.96 0.97 0.98 0.99
0.011 0.03725 0.066 0.0875 0.11175 0.137 0.15575 0.174 0.19175 0.21425 0.231 0.2445 0.26375 0.2805 0.3035 0.3225 0.33925 0.35575 0.368 0.38225 0.4005 0.4155 0.4285 0.43975 0.45175 0.467 0.4775 0.49675 0.50875 0.519 0.53325 0.54625 0.55675 0.56675 0.578 0.58925 0.5985 0.61 0.61925 0.632 0.646 0.656 0.66575 0.67525 0.6825 0.6905 0.70375 0.7145 0.72275 0.729 0.73875 0.7455 0.75425 0.761 0.771 0.78025 0.78875 0.79775 0.80675 0.81425 0.82 0.829 0.83375 0.84275 0.84825 0.8565 0.862 0.868 0.87425 0.88325 0.8915 0.896 0.90175 0.90775 0.916 0.923 0.928 0.93325 0.93775 0.94175 0.9465 0.94975 0.95575 0.95925 0.9635 0.96525 0.968 0.97025 0.97325 0.97525 0.9785 0.98 0.9815 0.985 0.98575 0.98975 0.99125 0.993 0.99525 0.997
0.0 0.02 0.0375 0.06 0.075 0.1 0.1175 0.14 0.155 0.175 0.205 0.2225 0.2325 0.2525 0.27 0.2975 0.31 0.3225 0.33 0.3475 0.355 0.375 0.38 0.395 0.4075 0.4175 0.4325 0.4525 0.4675 0.47 0.49 0.5 0.5025 0.515 0.53 0.54 0.5575 0.575 0.58 0.61 0.625 0.63 0.6475 0.6575 0.66 0.6675 0.675 0.69 0.6975 0.7125 0.72 0.73 0.735 0.7375 0.745 0.75 0.7525 0.7575 0.765 0.77 0.775 0.785 0.7925 0.8075 0.815 0.8275 0.8325 0.8375 0.8475 0.8575 0.8675 0.87 0.8775 0.8825 0.8825 0.8875 0.9025 0.91 0.9175 0.9275 0.9375 0.94 0.9475 0.9475 0.9475 0.95 0.9525 0.9575 0.96 0.9625 0.965 0.965 0.965 0.9775 0.9775 0.98 0.9825 0.9875 0.9925 0.995
0.02 0.06 0.11 0.14 0.1525 0.1725 0.19 0.1975 0.2375 0.2475 0.2625 0.275 0.2925 0.3075 0.3325 0.3525 0.3775 0.39 0.4075 0.42 0.4425 0.4575 0.4725 0.48 0.49 0.4975 0.515 0.5325 0.5475 0.5625 0.5725 0.58 0.585 0.595 0.6 0.6275 0.6425 0.6425 0.6525 0.665 0.68 0.69 0.6925 0.7025 0.7175 0.7275 0.74 0.755 0.7625 0.765 0.765 0.7725 0.78 0.7825 0.805 0.8075 0.8125 0.83 0.8325 0.8375 0.85 0.8525 0.86 0.8725 0.8775 0.88 0.8875 0.89 0.895 0.905 0.915 0.9225 0.93 0.935 0.9425 0.9425 0.945 0.9525 0.9575 0.9575 0.9675 0.97 0.97 0.9725 0.9775 0.98 0.98 0.985 0.99 0.99 0.9925 0.9925 0.995 0.995 0.995 0.995 0.9975 0.9975 1.0 1.0
