spectrum6 (0.59)
0.0 0.01 0.02 0.03 0.04 0.05 0.06 0.07 0.08 0.09 0.1 0.11 0.12 0.13 0.14 0.15 0.16 0.17 0.18 0.19 0.2 0.21 0.22 0.23 0.24 0.25 0.26 0.27 0.28 0.29 0.3 0.31 0.32 0.33 0.34 0.35 0.36 0.37 0.38 0.39 0.4 0.41 0.42 0.43 0.44 0.45 0.46 0.47 0.48 0.49 0.5 0.51 0.52 0.53 0.54 0.55 0.56 0.57 0.58 0.59 0.6 0.61 0.62 0.63 0.64 0.65 0.66 0.67 0.68 0.69 0.7 0.71 0.72 0.73 0.74 0.75 0.76 0.77 0.78 0.79 0.8 0.81 0.82 0.83 0.84 0.85 0.86 0.87 0.88 0.89 0.9 0.91 0.92 0.93 0.94 0.95 0.96 0.97 0.98 0.99
0.00675 0.02325 0.04325 0.059 0.07925 0.10075 0.115 0.129 0.14525 0.16025 0.1735 0.18875 0.205 0.2195 0.23025 0.247 0.26375 0.279 0.28775 0.298 0.31 0.322 0.3335 0.34675 0.3575 0.37125 0.38675 0.39575 0.4045 0.41725 0.43025 0.44375 0.45625 0.4635 0.47775 0.4895 0.4985 0.50675 0.517 0.52525 0.5315 0.54225 0.55225 0.563 0.57075 0.583 0.59425 0.60175 0.609 0.61575 0.62425 0.63275 0.643 0.653 0.66025 0.6675 0.67625 0.687 0.69675 0.70375 0.71 0.72 0.73175 0.7375 0.7455 0.75175 0.76 0.76675 0.7755 0.7845 0.79325 0.801 0.808 0.816 0.82 0.828 0.83675 0.846 0.855 0.86175 0.87 0.8785 0.887 0.89125 0.8985 0.906 0.9095 0.91475 0.922 0.92925 0.93575 0.942 0.9475 0.952 0.9565 0.96775 0.97375 0.97675 0.98525 0.9915
0.0025 0.015 0.03 0.04 0.06 0.0875 0.095 0.1125 0.1325 0.1375 0.1525 0.1675 0.1925 0.1975 0.2025 0.2225 0.2375 0.25 0.265 0.275 0.2775 0.29 0.305 0.315 0.3275 0.3375 0.365 0.38 0.38 0.3875 0.4075 0.41 0.4225 0.4325 0.4475 0.455 0.46 0.4725 0.4825 0.4875 0.5 0.5075 0.515 0.5375 0.545 0.5525 0.5675 0.58 0.585 0.5875 0.6025 0.6075 0.6075 0.6175 0.635 0.635 0.65 0.665 0.675 0.6825 0.6925 0.7 0.7175 0.72 0.7275 0.7325 0.7375 0.7575 0.7625 0.765 0.7825 0.785 0.7925 0.7975 0.8 0.805 0.82 0.825 0.8375 0.8425 0.845 0.8575 0.8675 0.87 0.8775 0.8825 0.8875 0.8875 0.895 0.9025 0.9175 0.925 0.935 0.9375 0.9375 0.9575 0.9625 0.9675 0.98 0.985
0.015 0.0275 0.06 0.0725 0.1075 0.1225 0.1375 0.1525 0.1675 0.19 0.2 0.22 0.225 0.24 0.2525 0.2725 0.2875 0.3125 0.33 0.335 0.3525 0.3575 0.3625 0.3775 0.3825 0.3875 0.4175 0.42 0.44 0.45 0.465 0.48 0.495 0.4975 0.515 0.53 0.535 0.5425 0.545 0.5475 0.555 0.58 0.5875 0.5875 0.5925 0.615 0.63 0.63 0.645 0.6525 0.655 0.6725 0.685 0.69 0.6975 0.7 0.7075 0.7125 0.725 0.7325 0.735 0.74 0.7425 0.745 0.755 0.7575 0.77 0.775 0.79 0.8 0.8025 0.81 0.8225 0.825 0.8275 0.8525 0.8575 0.865 0.88 0.89 0.9025 0.9175 0.92 0.9225 0.925 0.935 0.9375 0.9475 0.9575 0.96 0.96 0.965 0.965 0.9675 0.9775 0.985 0.99 0.9925 0.995 0.9975
