spectrum6 (0.64)
0.0 0.01 0.02 0.03 0.04 0.05 0.06 0.07 0.08 0.09 0.1 0.11 0.12 0.13 0.14 0.15 0.16 0.17 0.18 0.19 0.2 0.21 0.22 0.23 0.24 0.25 0.26 0.27 0.28 0.29 0.3 0.31 0.32 0.33 0.34 0.35 0.36 0.37 0.38 0.39 0.4 0.41 0.42 0.43 0.44 0.45 0.46 0.47 0.48 0.49 0.5 0.51 0.52 0.53 0.54 0.55 0.56 0.57 0.58 0.59 0.6 0.61 0.62 0.63 0.64 0.65 0.66 0.67 0.68 0.69 0.7 0.71 0.72 0.73 0.74 0.75 0.76 0.77 0.78 0.79 0.8 0.81 0.82 0.83 0.84 0.85 0.86 0.87 0.88 0.89 0.9 0.91 0.92 0.93 0.94 0.95 0.96 0.97 0.98 0.99
0.0085 0.02975 0.05025 0.078 0.09825 0.11525 0.14175 0.16 0.17875 0.20075 0.213 0.233 0.24775 0.26375 0.27775 0.29 0.31675 0.33175 0.3465 0.363 0.376 0.38825 0.4035 0.4175 0.427 0.441 0.45075 0.46125 0.47325 0.488 0.4975 0.50925 0.52 0.5345 0.5465 0.55575 0.572 0.5855 0.59575 0.605 0.6155 0.622 0.63275 0.64025 0.65175 0.65875 0.66875 0.673 0.67725 0.6895 0.697 0.7095 0.72175 0.7285 0.7375 0.7505 0.7565 0.7625 0.77 0.7745 0.78125 0.78825 0.7985 0.8035 0.811 0.8215 0.829 0.83425 0.8405 0.848 0.85425 0.8605 0.86925 0.87475 0.8805 0.887 0.895 0.9015 0.906 0.91125 0.91875 0.923 0.92625 0.93125 0.93575 0.93875 0.94175 0.94625 0.95225 0.9555 0.961 0.966 0.972 0.9735 0.977 0.98 0.98225 0.98525 0.991 0.99525
0.0 0.015 0.0375 0.0625 0.0825 0.1 0.1175 0.1375 0.1475 0.1575 0.1675 0.1875 0.21 0.235 0.2425 0.25 0.2725 0.2875 0.3125 0.335 0.3425 0.35 0.3625 0.375 0.385 0.3975 0.4125 0.4225 0.44 0.46 0.465 0.48 0.49 0.5075 0.52 0.525 0.5325 0.54 0.565 0.5725 0.5775 0.585 0.595 0.6075 0.625 0.625 0.6325 0.6375 0.6425 0.6525 0.6625 0.675 0.6925 0.7 0.7075 0.72 0.725 0.7375 0.7375 0.7425 0.75 0.755 0.7625 0.765 0.7825 0.7975 0.805 0.815 0.8225 0.825 0.8275 0.835 0.8475 0.855 0.86 0.8675 0.8725 0.8775 0.88 0.8875 0.89 0.9025 0.9025 0.9125 0.915 0.9225 0.9275 0.935 0.945 0.95 0.9525 0.955 0.9675 0.97 0.9725 0.9725 0.9725 0.9775 0.985 0.9925
0.015 0.0375 0.0675 0.1 0.1125 0.13 0.1625 0.1775 0.21 0.2325 0.25 0.265 0.28 0.295 0.3275 0.3375 0.3525 0.375 0.385 0.395 0.4075 0.4225 0.425 0.45 0.4525 0.4775 0.4825 0.495 0.5125 0.5275 0.53 0.54 0.5475 0.5675 0.5825 0.59 0.6025 0.62 0.6275 0.64 0.655 0.66 0.6675 0.6725 0.6825 0.695 0.705 0.7075 0.7175 0.7275 0.73 0.745 0.7525 0.755 0.7625 0.7725 0.7775 0.78 0.795 0.8 0.805 0.81 0.825 0.83 0.835 0.845 0.855 0.865 0.875 0.8825 0.89 0.8925 0.8925 0.895 0.905 0.9075 0.915 0.9225 0.9325 0.9375 0.9425 0.95 0.95 0.95 0.955 0.9575 0.9575 0.96 0.965 0.965 0.97 0.975 0.9775 0.9775 0.9825 0.985 0.99 0.99 0.995 0.9975
